Date and Time:                Tue Apr 30 15:48:12.409 2024
Software Version:             4.30.30034.0
Unstabilized Temperature (C): -72.757
Model:                        DU970P_BVF
Data Type:                    Counts
Acquisition Mode:             Accumulate
Trigger Mode:                 Internal
Exposure Time (secs):         0.51067
Accumulate Cycle Time (secs): 0.51067
Frequency (Hz):               1.9582
Number of Accumulations:      50
Readout Mode:                 Full Vertical Binning
Horizontal binning:           1
Extended Dynamic Range:       off
Horizontally flipped:         false
Vertical Shift Speed (usecs): 9.68
Pixel Readout Rate (MHz):     1
Baseline Clamp:               ON
Clock Amplitude:              Normal
Output Amplifier:             Conventional
Serial Number:                21547
Pre-Amplifier Gain:           4x
Spurious Noise Filter Mode:   No Filter
Photon counted:               false
Data Averaging Filter Mode:   No Filter
SR193i:
Serial Number:                KY-3410
Wavelength (nm):              668.287
Grating Groove Density (l/mm):599.775
Grating Blaze:                650nm
Output Direct Slit Width (um): 260



552.68842	27434
552.81213	27561
552.93585	27560
553.05963	27653
553.18335	27844
553.30707	27881
553.43079	27731
553.55457	27550
553.67828	27928
553.802	27765
553.92572	28151
554.04944	28295
554.17322	28121
554.29694	28605
554.42065	28873
554.54437	28743
554.66815	28838
554.79187	28941
554.91559	28875
555.03931	29256
555.16309	29339
555.2868	29648
555.41052	29745
555.53424	29880
555.65802	30183
555.78174	30327
555.90546	30402
556.02917	30695
556.15295	30870
556.27667	31370
556.40039	31368
556.52411	31998
556.64789	31993
556.77161	32593
556.89532	32872
557.01904	32762
557.14282	32926
557.26654	32670
557.39026	32831
557.51398	33069
557.63776	33118
557.76147	33441
557.88519	32966
558.00891	33216
558.13269	33395
558.25641	34082
558.38013	33479
558.50385	33161
558.62762	33115
558.75134	33525
558.87506	33711
558.99878	34616
559.12256	34555
559.24628	34885
559.37	35337
559.49371	34664
559.61749	35224
559.74121	35124
559.86493	35009
559.98865	35209
560.11243	34945
560.23615	35096
560.35986	34610
560.48358	34332
560.6073	33769
560.73108	33497
560.8548	32957
560.97852	33983
561.10223	33128
561.22601	33023
561.34973	33269
561.47345	32891
561.59717	32776
561.72095	32798
561.84467	32645
561.96838	32521
562.0921	32723
562.21582	32413
562.3396	32471
562.46332	33062
562.58704	33082
562.71075	32589
562.83453	32354
562.95825	32811
563.08197	32974
563.20569	32746
563.32941	32259
563.45319	32157
563.5769	32308
563.70062	32580
563.82434	32024
563.94806	32812
564.07184	32746
564.19556	32948
564.31927	33818
564.44299	33498
564.56671	33561
564.69043	33322
564.81421	34392
564.93793	34074
565.06165	34208
565.18536	34615
565.30908	33997
565.4328	33594
565.55658	33038
565.6803	33218
565.80402	32764
565.92773	32620
566.05145	32520
566.17517	32457
566.29895	32144
566.42267	31586
566.54639	31944
566.6701	31478
566.79382	31421
566.91754	30945
567.04126	31058
567.16498	31513
567.28876	30915
567.41248	31054
567.53619	31237
567.65991	30927
567.78363	30286
567.90735	30698
568.03107	30300
568.15479	30160
568.2785	30493
568.40222	30746
568.52594	30742
568.64972	30880
568.77344	30376
568.89716	30679
569.02087	30891
569.14459	30687
569.26831	30642
569.39203	30343
569.51575	31060
569.63947	30780
569.76318	30563
569.8869	30981
570.01062	30189
570.13434	30606
570.25806	30355
570.38177	30233
570.50549	30608
570.62921	30503
570.75293	31039
570.87665	30872
571.00037	30594
571.12408	30724
571.2478	30856
571.37152	31039
571.49524	31065
571.61896	31211
571.74268	31449
571.86639	31629
571.99011	31772
572.11383	31824
572.23755	32406
572.36127	31968
572.48499	32159
572.6087	32253
572.73242	32104
572.85608	32173
572.9798	31695
573.10352	31594
573.22723	31465
573.35095	31239
573.47467	31796
573.59839	31712
573.72211	31663
573.84583	31488
573.96948	31242
574.0932	31696
574.21692	31495
574.34064	32080
574.46436	31786
574.58807	31748
574.71179	31800
574.83545	31656
574.95917	31589
575.08289	31752
575.2066	31539
575.33032	31422
575.45398	31660
575.5777	31357
575.70142	32143
575.82513	31852
575.94879	31075
576.07251	31376
576.19623	31418
576.31995	31783
576.4436	31388
576.56732	31462
576.69104	32164
576.81476	31870
576.93842	32227
577.06213	31799
577.18585	31854
577.30951	31454
577.43323	31987
577.55695	31907
577.6806	31872
577.80432	31754
577.92804	32077
578.0517	32260
578.17542	32471
578.29913	31848
578.42279	31878
578.54651	32047
578.67023	31637
578.79388	31795
578.9176	31581
579.04126	32313
579.16498	31651
579.28864	31738
579.41235	31671
579.53607	31644
579.65973	32311
579.78345	31996
579.9071	31999
580.03082	31486
580.15448	31394
580.2782	32320
580.40186	31862
580.52557	31661
580.64923	31904
580.77295	32024
580.89661	31726
581.02032	31999
581.14398	32038
581.2677	32067
581.39136	32150
581.51501	32555
581.63873	32269
581.76239	32068
581.88611	32538
582.00977	32828
582.13342	32816
582.25714	33004
582.3808	33554
582.50452	33426
582.62817	33095
582.75183	33217
582.87555	33060
582.99921	33152
583.12286	32804
583.24652	32137
583.37024	32615
583.4939	32301
583.61755	32562
583.74127	32292
583.86493	32332
583.98859	32059
584.11224	32095
584.23596	32110
584.35962	31954
584.48328	32202
584.60693	32118
584.73059	31821
584.85431	32345
584.97797	32380
585.10162	32217
585.22528	32526
585.34894	32349
585.4726	32414
585.59625	32264
585.71997	32422
585.84363	32779
585.96729	33120
586.09094	33207
586.2146	33271
586.33826	32606
586.46191	32438
586.58557	33154
586.70923	32663
586.83289	32509
586.95654	32841
587.0802	32911
587.20386	33017
587.32751	33429
587.45117	33186
587.57483	32686
587.69849	32756
587.82214	33237
587.9458	33282
588.06946	32945
588.19312	32959
588.31671	33677
588.44037	33310
588.56403	33134
588.68768	33497
588.81134	33235
588.935	33304
589.05865	33031
589.18225	33511
589.30591	33458
589.42957	33606
589.55322	33550
589.67688	33004
589.80048	33620
589.92413	33484
590.04779	33862
590.17139	34055
590.29504	33997
590.4187	33464
590.54236	33248
590.66595	33328
590.78961	33054
590.91327	32959
591.03687	33577
591.16052	33537
591.28412	33212
591.40778	33405
591.53143	33098
591.65503	33210
591.77869	33555
591.90228	33736
592.02594	33724
592.14954	33349
592.27319	33511
592.39679	33443
592.52045	33476
592.64404	33775
592.7677	33569
592.8913	34807
593.01495	34063
593.13855	34163
593.26221	34255
593.3858	34599
593.5094	34536
593.63306	34283
593.75665	34013
593.88031	34321
594.00391	34394
594.1275	34705
594.2511	34721
594.37476	34723
594.49835	34683
594.62195	34848
594.74561	34796
594.8692	34836
594.9928	34946
595.11639	34750
595.24005	34807
595.36365	34558
595.48724	34879
595.61084	34621
595.73444	34747
595.85803	34667
595.98163	34865
596.10529	34771
596.22888	34656
596.35248	35242
596.47607	35367
596.59967	34892
596.72327	35177
596.84686	35416
596.97046	35456
597.09406	35619
597.21765	35655
597.34125	35736
597.46484	35689
597.58844	35638
597.71204	36483
597.83563	36225
597.95923	36385
598.08282	36029
598.20636	36789
598.32996	36927
598.45355	36877
598.57715	36838
598.70074	36279
598.82434	35997
598.94788	36663
599.07147	36190
599.19507	36632
599.31866	36730
599.4422	36272
599.5658	36385
599.68939	36559
599.81293	36654
599.93652	36241
600.06012	36554
600.18365	36881
600.30725	37130
600.43085	37138
600.55438	36904
600.67798	37031
600.80151	36735
600.92511	36574
601.04865	36836
601.17224	36764
601.29578	35700
601.41937	36426
601.54291	36872
601.6665	36814
601.79004	37029
601.91364	37323
602.03717	37400
602.16071	37512
602.2843	37722
602.40784	37813
602.53137	37314
602.65497	36838
602.7785	37925
602.90204	37780
603.02563	38098
603.14917	37605
603.27271	38138
603.39624	37743
603.51984	38156
603.64337	38732
603.76691	38151
603.89044	38415
604.01398	39018
604.13751	39757
604.26111	39624
604.38464	39412
604.50818	39134
604.63171	39822
604.75525	39751
604.87878	39727
605.00232	38947
605.12585	39787
605.24939	40189
605.37292	39659
605.49646	39601
605.62	39664
605.74353	39518
605.867	39369
605.99054	40109
606.11407	39863
606.23761	39778
606.36115	39979
606.48468	40067
606.60815	40894
606.73169	41826
606.85522	43011
606.97876	43696
607.10223	44522
607.22577	46207
607.3493	47967
607.47278	50042
607.59631	52412
607.71985	55716
607.84332	58822
607.96686	61058
608.09033	63405
608.21387	64609
608.3374	64976
608.46088	60948
608.58441	58043
608.70789	53968
608.83142	51218
608.9549	49193
609.07837	46816
609.2019	44832
609.32538	44342
609.44891	42901
609.57239	41833
609.69586	41903
609.8194	40691
609.94287	40546
610.06635	40350
610.18982	39352
610.31335	39239
610.43683	39201
610.5603	38983
610.68378	39844
610.80725	39784
610.93079	39286
611.05426	39632
611.17773	38843
611.30121	39174
611.42468	39395
611.54816	39106
611.67163	38900
611.7951	38947
611.91858	39105
612.04205	39739
612.16553	39528
612.289	40151
612.41248	39958
612.53595	39008
612.65942	39424
612.7829	39184
612.90631	39647
613.02979	39543
613.15326	39145
613.27673	39722
613.40021	39277
613.52362	39976
613.64709	40124
613.77057	40252
613.89398	40182
614.01746	40595
614.14093	40989
614.26434	40423
614.38782	40854
614.51123	41022
614.6347	40892
614.75818	41021
614.88159	41520
615.00507	42685
615.12848	42689
615.25189	43121
615.37537	43548
615.49878	45208
615.62225	46643
615.74567	48007
615.86908	49534
615.99255	51662
616.11597	55209
616.23938	58186
616.36285	60596
616.48627	63667
616.60968	63845
616.73309	62953
616.85657	61663
616.97998	57468
617.10339	54654
617.22681	51457
617.35022	49146
617.47363	47624
617.59705	45967
617.72046	44565
617.84387	43241
617.96729	42678
618.0907	42578
618.21411	42060
618.33752	41939
618.46094	40661
618.58435	40777
618.70776	41237
618.83118	40933
618.95453	40292
619.07794	40325
619.20135	40297
619.32477	40813
619.44812	39668
619.57153	40212
619.69495	40574
619.8183	40726
619.94171	40881
620.06512	39852
620.18848	40295
620.31189	39799
620.43524	39568
620.55865	40022
620.68207	39851
620.80542	39831
620.92877	39601
621.05219	40071
621.17554	39735
621.29895	40033
621.4223	39917
621.54565	39697
621.66907	40120
621.79242	40597
621.91577	39585
622.03918	40389
622.16254	39925
622.28589	39580
622.40924	39951
622.53259	39823
622.65601	39736
622.77936	40054
622.90271	40350
623.02606	40389
623.14941	40617
623.27277	40347
623.39612	40648
623.51947	39885
623.64282	39614
623.76617	39542
623.88953	40173
624.01288	40106
624.13617	41475
624.25952	41132
624.38287	42138
624.50623	41555
624.62958	41906
624.75287	42552
624.87622	42988
624.99957	43041
625.12286	43040
625.24622	42898
625.36957	42012
625.49286	41900
625.61621	41317
625.7395	41175
625.86285	40973
625.98615	39992
626.1095	40295
626.23279	40226
626.35614	40071
626.47943	39800
626.60278	39912
626.72607	39399
626.84937	39275
626.97272	39492
627.09601	39860
627.2193	39368
627.34259	39171
627.46594	39677
627.58923	39431
627.71252	39504
627.83582	39343
627.95911	38744
628.0824	38775
628.20569	38761
628.32898	39141
628.45227	38935
628.57556	39032
628.69885	38793
628.82214	38670
628.94543	38313
629.06873	38158
629.19202	37920
629.31531	38876
629.43854	38957
629.56183	38418
629.68512	38817
629.80841	38384
629.93164	38461
630.05493	39183
630.17822	39114
630.30145	38659
630.42474	38484
630.54797	38084
630.67126	37561
630.79449	37876
630.91779	37497
631.04102	38262
631.16431	38960
631.28754	38135
631.41083	37881
631.53406	38245
631.65729	38027
631.78058	38080
631.90381	38197
632.02704	38248
632.15027	38073
632.27356	37361
632.39679	37435
632.52002	37844
632.64325	38198
632.76648	38403
632.88971	38503
633.01294	38181
633.13617	38777
633.2594	38512
633.38263	39753
633.50586	40039
633.62909	39840
633.75232	39332
633.87555	39896
633.99878	39733
634.12195	39576
634.24518	39504
634.36841	39932
634.49164	39300
634.61481	38692
634.73804	38621
634.86127	38807
634.98444	38472
635.10767	38905
635.23083	38802
635.35406	38803
635.47723	38293
635.60046	38330
635.72363	38248
635.84686	38464
635.97003	38092
636.0932	37933
636.21643	37511
636.3396	37663
636.46277	38056
636.58594	38215
636.70917	38238
636.83234	38182
636.95551	38550
637.07867	38664
637.20184	38091
637.32501	37348
637.44818	38065
637.57135	37539
637.69452	37618
637.81769	37698
637.94086	37453
638.06403	38294
638.18719	37881
638.31036	38749
638.43353	38271
638.55664	37792
638.67981	37528
638.80298	36945
638.92615	37135
639.04926	37672
639.17242	37379
639.29553	37255
639.4187	36888
639.54187	37351
639.66498	37163
639.78815	37403
639.91125	38289
640.03436	38071
640.15753	37059
640.28064	37737
640.40381	38468
640.52692	38201
640.65002	37995
640.77313	38294
640.8963	38445
641.01941	38416
641.14252	38132
641.26562	37983
641.38873	37923
641.51184	37876
641.63495	38011
641.75806	37671
641.88116	37228
642.00427	37991
642.12738	37756
642.25049	37781
642.3736	38249
642.4967	37755
642.61981	37933
642.74286	37279
642.86597	37737
642.98907	37890
643.11218	38089
643.23523	38260
643.35834	37996
643.48138	37539
643.60449	38284
643.7276	38017
643.85065	37906
643.97369	38063
644.0968	37893
644.21985	38026
644.34296	38399
644.466	37889
644.58905	37821
644.71216	37842
644.83521	38120
644.95825	38114
645.0813	38147
645.20435	37987
645.32745	37889
645.4505	38457
645.57355	38288
645.69659	38334
645.81964	37851
645.94269	37861
646.06573	38625
646.18878	38101
646.31177	38445
646.43481	37874
646.55786	38231
646.68091	37967
646.80396	38323
646.92694	38090
647.04999	37708
647.17303	37885
647.29602	38125
647.41907	38101
647.54205	37767
647.6651	38283
647.78809	38152
647.91113	38479
648.03412	38686
648.15717	38097
648.28015	38755
648.40314	38363
648.52618	38572
648.64917	39261
648.77216	39356
648.89514	38272
649.01819	38949
649.14117	39652
649.26416	39227
649.38715	39496
649.51013	39752
649.63312	39764
649.7561	39832
649.87909	39550
650.00208	39780
650.12506	39188
650.24799	38992
650.37097	39342
650.49396	38989
650.61694	38922
650.73987	39584
650.86285	38467
650.98584	38448
651.10876	38385
651.23175	38302
651.35474	38304
651.47766	38268
651.60059	38101
651.72357	37887
651.8465	37780
651.96948	37136
652.09241	37854
652.21533	38027
652.33832	37768
652.46124	37747
652.58417	38191
652.70709	38035
652.83002	37562
652.95294	37388
653.07593	37217
653.19885	37735
653.32178	37872
653.44464	37846
653.56757	37510
653.69049	37132
653.81342	37309
653.93634	37278
654.05927	36431
654.18219	36894
654.30505	37155
654.42798	36601
654.5509	35707
654.67377	35536
654.79669	36022
654.91956	36421
655.04248	36560
655.16534	36593
655.28827	37440
655.41113	37176
655.53406	37545
655.65692	36539
655.77979	36976
655.90271	37533
656.02557	37526
656.14844	37935
656.2713	36720
656.39417	37676
656.51703	37063
656.63989	37454
656.76276	37723
656.88562	38172
657.00848	37347
657.13135	38348
657.25421	38621
657.37708	38776
657.49994	38998
657.6228	39047
657.74561	38588
657.86847	39095
657.99133	38696
658.11414	39129
658.237	39380
658.3598	38754
658.48267	39133
658.60547	38596
658.72833	39015
658.85114	38961
658.974	39590
659.0968	38888
659.2196	39376
659.34247	38694
659.46527	38579
659.58807	38440
659.71088	38654
659.83368	37341
659.95648	37861
660.07928	38147
660.20209	38098
660.32489	37428
660.44769	37886
660.5705	37428
660.6933	38175
660.8161	37864
660.9389	37842
661.06171	37413
661.18445	37633
661.30725	37442
661.43005	38002
661.5528	38128
661.6756	37836
661.79834	37924
661.92114	38225
662.04388	39314
662.16669	39289
662.28943	39011
662.41217	38411
662.53497	38789
662.65771	38575
662.78046	38284
662.9032	38518
663.026	39035
663.14874	39454
663.27148	39253
663.39423	39390
663.51697	38200
663.63971	38184
663.76245	38529
663.88519	38604
664.00793	38544
664.13062	39536
664.25336	39849
664.3761	39240
664.49884	38369
664.62152	39279
664.74426	39300
664.86694	38656
664.98969	38668
665.11243	37827
665.23511	38656
665.35779	38052
665.48053	38314
665.60321	38145
665.72589	37744
665.84863	37173
665.97131	37203
666.09399	37299
666.21667	37371
666.33942	37276
666.4621	38372
666.58478	38234
666.70746	37761
666.83014	37352
666.95282	37832
667.07544	37816
667.19812	37629
667.3208	37757
667.44348	37885
667.56616	37187
667.68878	38049
667.81146	38468
667.93414	38925
668.05676	38656
668.17944	39113
668.30206	38869
668.42474	39611
668.54736	39802
668.66998	40208
668.79266	40363
668.91528	39755
669.0379	38950
669.16058	38925
669.2832	38242
669.40582	37981
669.52844	37215
669.65106	37475
669.77368	37330
669.8963	37070
670.01892	37187
670.14154	37633
670.26416	38508
670.38678	38237
670.50934	39386
670.63196	39214
670.75458	39351
670.87714	40208
670.99976	41286
671.12238	41831
671.24493	42504
671.36755	43149
671.49011	42928
671.61273	41475
671.73529	42264
671.85785	41290
671.98047	41349
672.10303	40445
672.22559	40651
672.34814	39559
672.4707	38663
672.59326	38491
672.71582	38426
672.83838	38233
672.96094	37914
673.0835	38232
673.20605	38342
673.32861	38074
673.45117	38329
673.57373	38250
673.69623	38227
673.81879	37478
673.94135	37436
674.06384	38033
674.1864	37567
674.3089	37853
674.43146	37373
674.55396	37152
674.67651	37355
674.79901	37764
674.92151	37579
675.04401	37349
675.16656	36428
675.28906	36215
675.41156	35735
675.53406	35696
675.65656	35660
675.77905	35432
675.90155	35801
676.02405	35577
676.14655	35237
676.26904	35192
676.39154	35295
676.51398	35485
676.63647	35686
676.75897	36724
676.88141	36718
677.00391	36926
677.12634	36961
677.24884	36932
677.37128	37796
677.49377	37827
677.61621	36902
677.73865	37041
677.86115	37189
677.98358	38078
678.10602	37838
678.22845	37354
678.35089	38021
678.47333	37394
678.59576	36451
678.7182	36046
678.84064	36158
678.96307	35779
679.08551	35214
679.20795	35397
679.33038	34439
679.45276	35222
679.5752	34827
679.69763	35141
679.82001	35359
679.94244	35195
680.06482	35053
680.18726	35062
680.30963	34933
680.43207	35511
680.55444	34699
680.67682	34386
680.79919	34452
680.92163	34065
681.04401	33610
681.16638	33598
681.28876	33826
681.41113	32980
681.53351	33198
681.65588	32234
681.77826	30786
681.90057	28512
682.02295	26185
682.14532	23492
682.2677	21457
682.39001	19278
682.51239	17764
682.63477	16948
682.75708	16027
682.87946	15578
683.00177	15445
683.12408	15221
683.24646	15105
683.36877	15083
683.49109	15023
683.61346	15064
683.73578	15080
683.85809	15040
683.98041	15018
684.10272	15075
684.22504	15049
684.34735	15027
684.46967	15007
684.59198	15001
684.71423	14983
684.83655	14989
684.95886	14989
685.08112	15023
685.20343	14950
685.32574	14870
685.448	14969
685.57031	14948
685.69257	15017
685.81488	14911
685.93713	14976
686.05939	15067
686.18164	15062
686.30396	14939
686.42621	14937
686.54846	15036
686.67072	15034
686.79297	15083
686.91522	15022
687.03748	15001
687.15973	14966
687.28198	14999
687.40417	15009
687.52643	14915
687.64868	14884
687.77094	14881
687.89313	14929
688.01538	14998
688.13757	15062
688.25983	15058
688.38202	14902
688.50421	15008
688.62646	14989
688.74866	15033
688.87085	14884
688.99304	15000
689.1153	15024
689.23749	14967
689.35968	14968
689.48187	14895
689.60406	14991
689.72626	15024
689.84839	14928
689.97058	14934
690.09277	14986
690.21497	14929
690.3371	14985
690.45929	14881
690.58148	15003
690.70361	15048
690.82581	14957
690.94794	14892
691.07007	15018
691.19226	14877
691.31439	14994
691.43652	15083
691.55865	14972
691.68085	14969
691.80298	15028
691.92511	15044
692.04724	14944
692.16937	15013
692.29144	14961
692.41357	14976
692.53571	14975
692.65784	14916
692.77997	14922
692.90204	14944
693.02417	14899
693.14624	14928
693.26837	15016
693.39044	14983
693.51257	14897
693.63464	14963
693.75677	14978
693.87885	14969
694.00092	14938
694.12299	15042
694.24506	14952
694.36713	15070
694.4892	14998
694.61127	14869
694.73334	15019
694.85541	14885
694.97748	14959
695.09955	14898
695.22156	14956
695.34363	15038
695.4657	14973
695.58771	15019
695.70978	14971
695.83179	14925
695.95386	14895
696.07587	14875
696.19794	15019
696.31995	15043
696.44196	14950
696.56396	15027
696.68597	14865
696.80798	14911
696.93005	14951
697.052	14902
697.17401	15004
697.29602	14908
697.41803	14936
697.54004	14936
697.66205	14971
697.784	14878
697.90601	14985
698.02802	14919
698.14996	14917
698.27197	14998
698.39392	14928
698.51587	14922
698.63788	14905
698.75983	15076
698.88177	14889
699.00372	14871
699.12573	14973
699.24768	14963
699.36963	14878
699.49158	14930
699.61353	14871
699.73541	14904
699.85736	14888
699.97931	14858
700.10126	15023
700.22314	15024
700.34509	15096
700.46704	14835
700.58893	15062
700.71088	15028
700.83276	14915
700.95465	14968
701.0766	14865
701.19849	14915
701.32037	14898
701.44226	14977
701.56415	14876
701.6861	14947
701.80798	14960
701.92981	14942
702.0517	14930
702.17358	15022
702.29547	15039
702.41736	15005
702.53918	14972
702.66107	15047
702.78296	14973
702.90479	15037
703.02667	14908
703.1485	14894
703.27039	14989
703.39221	14949
703.51404	14919
703.63586	14978
703.75775	14984
703.87958	14977
704.0014	14903
704.12323	14982
704.24506	15004
704.36688	14893
704.48865	14970
704.61047	14867
704.7323	14947
704.85413	14975
704.97589	14932
705.09772	14932
705.21954	14922
705.34131	14805
705.46307	14867
705.5849	14884
705.70667	14911
705.82843	15001
705.95026	15069
706.07202	14903
706.19379	14997
706.31555	14897
706.43732	14999
706.55908	15025
706.68085	14991
706.80261	14919
706.92438	15014
707.04608	14929
707.16785	14909
707.28961	14895
707.41132	14902
707.53308	14944
707.65479	14942
707.77655	14911
707.89825	14937
708.01996	14951
708.14172	14990
708.26343	14944
708.38513	15007
708.50684	15009
708.62854	14882
708.75024	15039
708.87195	14872
708.99365	14834
709.11536	14927
709.237	14880
709.3587	14863
709.48041	14928
709.60205	14951
709.72375	15019
709.8454	14909
709.9671	15001
710.08875	14982
710.21045	15034
710.33209	15072
710.45374	14879
710.57538	14889
710.69702	14925
710.81873	15037
710.94037	14993
711.06195	14935
711.18359	14998
711.30524	14886
711.42688	14909
711.54852	14946
711.6701	14904
711.79175	14986
711.91339	14984
712.03497	14900
712.15662	14907
712.2782	14925
712.39978	14917
712.52142	14807
712.64301	14968
712.76459	14893
712.88617	14923
713.00775	14939
713.12933	14966
713.25092	14988
713.3725	14980
713.49408	14986
713.61566	14907
713.73718	14936
713.85876	15037
713.98035	14885
714.10187	14986
714.22345	14815
714.34497	14909
714.46655	14988
714.58807	14922
714.70959	14766
714.83118	14903
714.9527	14988
715.07422	14979
715.19574	15061
715.31726	14942
715.43878	14877
715.5603	14803
715.68182	14963
715.80328	14980
715.9248	14968
716.04633	14940
716.16779	14865
716.28931	14852
716.41077	14920
716.53229	14834
716.65375	14976
716.77521	14928
716.89673	14983
717.01819	14933
717.13965	14939
717.26111	14969
717.38257	15027
717.50403	14947
717.62549	14948
717.74695	14908
717.86841	14903
717.98987	14925
718.11127	15004
718.23273	14976
718.35413	14967
718.47559	14849
718.59698	14979
718.71844	14952
718.83984	14870
718.96124	15029
719.0827	15044
719.2041	15006
719.3255	15051
719.4469	14898
719.5683	14949
719.6897	14972
719.8111	14849
719.9325	14991
720.05383	14962
720.17523	14999
720.29663	14880
720.41797	14953
720.53937	14930
720.66071	14902
720.7821	14952
720.90344	15082
721.02478	14944
721.14618	14948
721.26752	14939
721.38885	14904
721.51019	14888
721.63153	14944
721.75287	15000
721.87421	14883
721.99554	15000
722.11682	14866
722.23816	15040
722.3595	14925
722.48077	14866
722.60211	14947
722.72339	15052
722.84473	14897
722.966	14845
723.08728	14882
723.20862	14983
723.3299	14975
723.45117	14958
723.57245	14958
723.69373	15017
723.815	14966
723.93628	14936
724.05756	14885
724.17877	14953
724.30005	14993
724.42133	14987
724.54254	14958
724.66382	14913
724.78503	15003
724.90631	14946
725.02753	14919
725.14874	14863
725.26996	15004
725.39124	14939
725.51245	14991
725.63367	14945
725.75488	14939
725.8761	14953
725.99731	14872
726.11847	14981
726.23969	15022
726.3609	14944
726.48206	14945
726.60327	14880
726.72443	14939
726.84564	14874
726.9668	15005
727.08795	14913
727.20917	14977
727.33032	14954
727.45148	14878
727.57263	14901
727.69379	14884
727.81494	15012
727.9361	14878
728.05725	15057
728.17841	14935
728.2995	15052
728.42065	14933
728.54175	14936
728.6629	14993
728.784	14939
728.90515	14940
729.02625	14903
729.14734	14913
729.26849	14921
729.38959	14953
729.51068	14917
729.63177	14866
729.75287	14973
729.87396	14889
729.99506	14932
730.11609	15028
730.23718	14869
730.35828	14952
730.47931	14799
730.6004	14886
730.72144	14909
730.84253	14976
730.96356	15040
731.08459	14924
731.20569	14868
731.32672	14890
731.44775	15000
731.56879	14979
731.68982	14882
731.81085	14940
731.93188	14975
732.05286	14889
732.17389	14813
732.29492	14996
732.41589	15029
732.53693	14857
732.6579	14986
732.77893	15032
732.8999	14920
733.02087	14913
733.14191	14970
733.26288	14969
733.38385	14920
733.50482	14998
733.62579	14960
733.74677	15017
733.86774	14980
733.98865	14892
734.10962	14927
734.23059	14987
734.3515	14880
734.47247	15050
734.59338	14978
734.71436	14992
734.83527	14934
734.95618	14980
735.07709	14943
735.19806	14904
735.31897	14937
735.43988	14927
735.56079	14959
735.68164	14944
735.80255	14972
735.92346	14932
736.04437	15018
736.16522	14952
736.28613	14925
736.40698	14928
736.52789	15040
736.64874	14964
736.76959	15062
736.8905	15005
737.01135	14913
737.1322	14962
737.25305	14967
737.3739	14901
737.49475	15039
737.6156	14990
737.73645	14967
737.85724	14998
737.97809	14931
738.09894	14927
738.21973	15018
738.34058	14969
738.46136	15002
738.58215	14965
738.703	15028
738.82379	14972
738.94458	14967
739.06537	14981
739.18616	14916
739.30695	14925
739.42773	14962
739.54852	14896
739.66925	15172
739.79004	14760
739.91083	15001
740.03156	14963
740.15234	14875
740.27307	14810
740.39386	14868
740.51459	14934
740.63531	15074
740.75604	14960
740.87677	14985
740.9975	14963
741.11823	14965
741.23895	14854
741.35968	14925
741.48041	14877
741.60107	14948
741.7218	14925
741.84253	14981
741.9632	15052
742.08392	14981
742.20459	14950
742.32526	14939
742.44592	14935
742.56665	15061
742.68732	15004
742.80798	14947
742.92865	14823
743.04932	14907
743.16992	15035
743.29059	15004
743.41125	15047
743.53192	14945
743.65253	14969
743.77319	15026
743.8938	14878
744.0144	14997
744.13507	14970
744.25568	14917
744.37628	14965
744.49689	14923
744.61749	14961
744.7381	14960
744.8587	14992
744.97931	14824
745.09991	14963
745.22046	14919
745.34106	14905
745.46167	14939
745.58221	14998
745.70276	15050
745.82336	14958
745.94391	14975
746.06445	14966
746.185	14878
746.3056	15002
746.42615	14905
746.54669	15029
746.66718	14949
746.78772	14978
746.90826	14968
747.02881	14922
747.14929	15014
747.26984	15092
747.39032	14952
747.51086	15002
747.63135	14956
747.75183	15036
747.87231	14935
747.99286	15074
748.11334	14991
748.23383	14929
748.35431	14978
748.47473	14989
748.59521	14902
748.7157	14987
748.83618	14995
